Tiempo(s)	Voltaje(V)
0.000063	1.12417
0.000654	1.15156
0.001191	1.04683
0.001722	1.00649
0.002250	1.00891
0.002811	1.00971
0.003343	1.04844
0.003871	1.15076
0.004399	1.22810
0.004948	1.32886
0.005478	1.51019
0.006007	1.71327
0.006535	1.90104
0.007061	2.05815
0.007590	2.18630
0.008118	2.25076
0.008647	2.26365
0.009198	2.25398
0.009726	2.19517
0.010254	2.08076
0.010782	1.92038
0.011309	1.73664
0.011837	1.54161
0.012366	1.35626
0.012895	1.21279
0.013424	1.08791
0.013958	1.05085
0.014497	1.00488
0.015027	1.01455
0.015555	1.08147
0.016082	1.19668
0.016611	1.35464
0.017142	1.41104
0.017703	1.49166
0.018231	1.68829
0.018759	1.87284
0.019288	2.03640
0.019817	2.16616
0.020344	2.23062
0.020872	2.26365
0.021400	2.21772
0.021929	2.12185
0.022457	1.97033
0.022985	1.79948
0.023513	1.61171
0.024041	1.41749
0.024568	1.24991
0.025098	1.11370
0.025626	1.02905
0.026154	1.00488
0.026684	1.02986
0.027213	1.11772
0.027741	1.25152
0.028268	1.42957
0.028796	1.62943
0.029323	1.81962
0.029852	1.99450
0.030380	2.12668
0.030907	2.22417
0.031436	2.27095
0.031964	2.23867
0.032494	2.16294
0.033022	2.02753
0.033550	1.86559
0.034078	1.83896
0.034661	1.86640
0.035189	1.68266
0.035720	1.49247
0.036247	1.30630
0.036774	1.15640
0.037302	1.03152
0.037831	1.01213
0.038358	1.03232
0.038887	1.10161
0.039415	1.20393
0.039944	1.37237
0.040471	1.55772
0.040999	1.75758
0.041528	1.93408
0.042058	2.08479
0.042586	2.18228
0.043114	2.26123
0.043641	2.25640
0.044171	2.19678
0.044699	2.09848
0.045228	1.94133
0.045756	1.75517
0.046284	1.55853
0.046812	1.36028
0.047339	1.20715
0.047867	1.07100
0.048396	1.01535
0.048924	1.00246
0.049453	1.04924
0.049983	1.13464
0.050513	1.29664
0.051040	1.47313
0.051567	1.65929
0.052096	1.84701
0.052626	2.01464
0.053154	2.15085
0.053683	2.23545
0.054213	2.26445
0.054742	2.23867
0.055271	2.17100
0.055800	2.02673
0.056326	1.85673
0.056856	1.67460
0.057386	1.48280
0.057913	1.30953
0.058442	1.15156
0.058970	1.05085
0.059498	1.00327
0.060027	1.01374
0.060554	1.08308
0.061081	1.20554
0.061611	1.37398
0.062138	1.56739
0.062666	1.74711
0.063196	1.93247
0.063725	2.08721
0.064252	2.20886
0.064781	2.25720
0.065310	2.24109
0.065838	2.18791
0.066366	2.06867
0.066893	1.94052
0.067422	1.74308
0.067950	1.87687
0.068577	2.01464
0.069106	1.86076
0.069634	1.66090
0.070162	1.46185
0.070691	1.29825
0.071218	1.15479
0.071746	1.05247
0.072275	1.00246
0.072803	1.00730
0.073332	1.09275
0.073860	1.22971
0.074388	1.37962
0.074915	1.57142
0.075443	1.76081
0.075972	1.94455
0.076499	2.09607
0.077028	2.20483
0.077556	2.25962
0.078087	2.26934
0.078621	2.21289
0.079150	2.12024
0.079677	1.97033
0.080206	1.79384
0.080735	1.61412
0.081267	1.42796
0.081794	1.27488
0.082323	1.11692
0.082852	1.04763
0.083380	1.00166
0.083908	1.03232
0.084435	1.10645
0.084962	1.27488
0.085490	1.43038
0.086018	1.63104
0.086547	1.81398
0.087076	1.97678
0.087605	2.11863
0.088133	2.22498
0.088662	2.26445
0.089190	2.24351
0.089718	2.18550
0.090246	2.03640
0.090775	1.87929
0.091304	1.69716
0.091833	1.50052
0.092360	1.31033
0.092887	1.15559
0.093415	1.05569
0.093944	1.00488
0.094473	1.01616
0.095000	1.08550
0.095528	1.20635
0.096056	1.38768
0.096583	1.55611
0.097112	1.74630
0.097641	1.92280
0.098171	2.07995
0.098699	2.19355
0.099227	2.25640
0.099755	2.25801
0.100284	2.20161
0.100813	2.09446
0.101341	1.94938
0.101870	1.76322
0.102397	1.58028
0.102927	1.39896
0.103454	1.22407
0.103983	1.09436
0.104511	1.01858
0.105039	1.00649
0.105567	1.04602
0.106098	1.13706
0.106626	1.27649
0.107155	1.45379
0.107683	1.65526
0.108211	1.83171
0.108738	2.00578
0.109268	2.14844
0.109796	2.23384
0.110324	2.26607
0.110855	2.24109
0.111383	2.15488
0.111911	2.03237
0.112440	1.87446
0.112969	1.68829
0.113498	1.49327
0.114027	1.32483
0.114555	1.16848
0.115084	1.05891
0.115612	1.01052
0.116141	1.01213
0.116669	1.07180
0.117198	1.18379
0.117725	1.35303
0.118254	1.52872
0.118783	1.72455
0.119311	1.90507
0.119840	2.06304
0.120369	2.18308
0.120896	2.24915
0.121426	2.25801
0.121954	2.21128
0.122481	2.12185
0.123010	1.97033
0.123540	1.78659
0.124068	1.59398
0.124597	1.41265
0.125126	1.24829
0.125655	1.11692
0.126183	1.02986
0.126711	1.00407
0.127240	1.02744
0.127769	1.10403
0.128298	1.25957
0.128825	1.43360
0.129353	1.62057
0.129880	1.81237
0.130410	1.98000
0.130939	2.12024
0.131467	2.21370
0.131996	2.25720
0.132524	2.24270
0.133052	2.16777
0.133581	2.04768
0.134110	1.88010
0.134637	1.70199
0.135164	1.48441
0.135692	1.87365
0.136393	2.20000
0.136921	2.08640
0.137449	1.92119
0.137977	1.73583
0.138504	1.53758
0.139033	1.35867
0.139561	1.19749
0.140090	1.07986
0.140617	1.01374
0.141145	1.00810
0.141673	1.06374
0.142203	1.14028
0.142737	1.25716
0.143268	1.41829
0.143798	1.61332
0.144327	1.80995
0.144854	1.98403
0.145383	2.11943
0.145911	2.22175
0.146439	2.26526
0.146967	2.24109
0.147495	2.16858
0.148024	2.03479
0.148553	1.88332
0.149082	1.69796
0.149611	1.50697
0.150139	1.33450
0.150669	1.17976
0.151197	1.06938
0.151726	1.00971
0.152256	1.00891
0.152785	1.06697
0.153313	1.17654
0.153840	1.32967
0.154368	1.50858
0.154896	1.69796
0.155425	1.88332
0.155954	2.04687
0.156483	2.16858
0.157013	2.23948
0.157542	2.26445
0.158071	2.23223
0.158600	2.13957
0.159129	2.00417
0.159657	1.82848
0.160185	1.63668
0.160712	1.44085
0.161241	1.27085
0.161769	1.13303
0.162298	1.04119
0.162826	0.99038
0.163355	1.02422
0.163884	1.09517
0.164414	1.21843
0.164941	1.38929
0.165470	1.58190
0.165999	1.77450
0.166526	1.95664
0.167054	2.10412
0.167583	2.20806
0.168111	2.25962
0.168639	2.25317
0.169168	2.18630
0.169697	2.07431
0.170226	1.92119
0.170753	1.72052
0.171280	1.52550
0.171808	1.34900
0.172337	1.18460
0.172866	1.07180
0.173393	1.01052
0.173921	1.00971
0.174450	1.06536
0.174978	1.17009
0.175507	1.32403
0.176036	1.50294
0.176564	1.69474
0.177094	1.87043
0.177623	2.03479
0.178150	2.17180
0.178678	2.24592
0.179204	2.25881
0.179733	2.21934
0.180261	2.10976
0.180789	1.96228
0.181316	1.77772
0.181845	1.58834
0.182373	1.38929
0.182900	1.22488
0.183429	1.10322
0.183958	1.02341
0.184486	1.00327
0.185013	1.04521
0.185542	1.13384
0.186071	1.28052
0.186599	1.44085
0.187128	1.63507
0.187657	1.83171
0.188185	2.00175
0.188713	2.13474
0.189243	2.22981
0.189770	2.26043
0.190300	2.24592
0.190830	2.17422
0.191360	2.05171
0.191888	1.89379
0.192418	1.71247
0.192945	1.52066
0.193475	1.33289
0.194002	1.17734
0.194530	1.06455
0.195057	0.99441
0.195585	1.01213
0.196113	1.08389
0.196642	1.18782
0.197169	1.35706
0.197699	1.53839
0.198226	1.72536
0.198755	1.90668
0.199285	2.06545
0.199812	2.19114
0.200340	2.25317
0.200868	2.25881
0.201396	2.20645
0.201924	2.08962
0.202452	1.94052
0.202980	1.75355
0.203509	1.56417
0.204037	1.37559
0.204565	1.21038
0.205093	1.08953
0.205622	1.01777
0.206152	1.01133
0.206685	1.02583
0.207215	1.11289
0.207743	1.25152
0.208272	1.40540
0.208801	1.59962
0.209329	1.79062
0.209858	1.96953
0.210386	2.11460
0.210913	2.21934
0.211441	2.26043
0.211970	2.24915
0.212499	2.17744
0.213026	2.04929
0.213555	1.89057
0.214084	1.69716
0.214612	1.50374
0.215140	1.33289
0.215668	1.18621
0.216198	1.06374
0.216726	1.01213
0.217254	1.00971
0.217783	1.06213
0.218313	1.18943
0.218839	1.35867
0.219367	1.51261
0.219898	1.70521
0.220426	1.88412
0.220953	2.05412
0.221482	2.17744
0.222011	2.24834
0.222538	2.26848
0.223066	2.21289
0.223594	2.11057
0.224122	1.96228
0.224650	1.78256
0.225179	1.59156
0.225707	1.41024
0.226237	1.24668
0.226767	1.11450
0.227295	1.02502
0.227824	1.01133
0.228352	1.03066
0.228881	1.11450
0.229409	1.25313
0.229936	1.42232
0.230466	1.59559
0.230995	1.78739
0.231525	1.96308
0.232053	2.11379
0.232581	2.21611
0.233109	2.26284
0.233637	2.24431
0.234165	2.17744
0.234694	2.04848
0.235221	1.89621
0.235751	1.71408
0.236280	1.51422
0.236808	1.32967
0.237336	1.17573
0.237864	1.07825
0.238391	1.00569
0.238919	1.00569
0.239447	1.07583
0.239976	1.18298
0.240505	1.35384
0.241031	1.54403
0.241560	1.73019
0.242088	1.91393
0.242616	2.08801
0.243145	2.18389
0.243673	2.25317
0.244202	2.25881
0.244731	2.20483
0.245260	2.10493
0.245789	1.93972
0.246317	1.78578
0.246847	1.60123
0.247378	1.42635
0.247906	1.25474
0.248434	1.11934
0.248962	1.03152
0.249491	1.00085
0.250018	1.03152
0.250547	1.12175
0.251075	1.25716
0.251603	1.43602
0.252131	1.60768
0.252660	1.80995
0.253188	1.98000
0.253717	2.10815
0.254245	2.21531
0.254774	2.26123
0.255303	2.24592
0.255831	2.16697
0.256358	2.03720
0.256887	1.87929
0.257416	1.69796
0.257945	1.51100
0.258475	1.33289
0.259003	1.18057
0.259531	1.06697
0.260059	1.00649
0.260587	1.01052
0.261116	1.07180
0.261645	1.17896
0.262173	1.33047
0.262701	1.51261
0.263229	1.71247
0.263758	1.88493
0.264288	2.05090
0.264816	2.17664
0.265343	2.24753
0.265871	2.26445
0.266398	2.21611
0.266927	2.10332
0.267456	1.95019
0.267982	1.77128
0.268510	1.58190
0.269038	1.38607
0.269566	1.21441
0.270095	1.10886
0.270627	1.04602
