Tiempo(s)	Voltaje(V)
0.000065	2.16938
0.000650	1.82929
0.001190	1.41507
0.001720	1.09678
0.002251	1.00810
0.002812	1.20635
0.003340	1.58190
0.003869	1.97839
0.004398	2.23706
0.004944	2.22417
0.005473	1.93005
0.006044	1.51744
0.006582	1.15881
0.007112	1.00407
0.007642	1.11047
0.008171	1.44976
0.008699	1.86962
0.009253	2.18550
0.009781	2.25881
0.010309	2.06304
0.010839	1.68910
0.011367	1.28858
0.011895	1.03716
0.012422	1.03796
0.012950	1.29261
0.013478	1.69152
0.014007	2.07109
0.014534	2.25720
0.015063	2.18228
0.015592	1.87687
0.016120	1.46910
0.016649	1.12578
0.017177	1.00327
0.017731	1.16204
0.018261	1.52228
0.018790	1.92602
0.019318	2.20725
0.019848	2.24431
0.020375	2.02512
0.020904	1.63104
0.021431	1.25877
0.021959	1.02260
0.022485	1.06052
0.023014	1.33047
0.023542	1.74228
0.024070	2.10010
0.024598	2.26445
0.025126	2.15972
0.025653	1.82929
0.026183	1.41829
0.026713	1.09839
0.027240	1.00649
0.027769	1.17976
0.028298	1.54967
0.028826	1.95261
0.029355	2.21692
0.029884	2.24028
0.030413	1.99934
0.030941	1.60526
0.031470	1.22488
0.031998	1.01777
0.032528	1.07100
0.033055	1.36673
0.033584	1.77370
0.034112	2.13313
0.034691	2.26526
0.035220	2.11702
0.035748	1.76000
0.036277	1.35706
0.036806	1.06455
0.037333	1.01938
0.037861	1.23782
0.038389	1.61815
0.038916	2.01062
0.039446	2.24753
0.039976	2.21531
0.040503	1.94052
0.041032	1.53275
0.041561	1.17332
0.042089	1.00488
0.042618	1.10483
0.043146	1.42877
0.043674	1.84379
0.044202	2.16294
0.044731	2.26204
0.045259	2.09043
0.045787	1.72455
0.046314	1.32403
0.046844	1.05085
0.047373	1.02180
0.047902	1.26038
0.048430	1.65365
0.048958	2.03640
0.049486	2.25076
0.050014	2.20242
0.050542	1.90991
0.051070	1.50777
0.051598	1.15237
0.052127	1.00488
0.052656	1.12256
0.053183	1.46346
0.053712	1.87687
0.054240	2.17905
0.054771	2.25801
0.055300	2.07029
0.055828	1.69635
0.056357	1.29744
0.056886	1.03716
0.057415	1.03555
0.057943	1.28616
0.058471	1.68266
0.059000	2.05976
0.059529	2.25801
0.060057	2.18550
0.060584	1.88251
0.061111	1.47313
0.061639	1.13706
0.062168	1.00327
0.062696	1.14190
0.063224	1.48521
0.063752	1.89702
0.064281	2.18066
0.064810	2.25317
0.065338	2.04687
0.065865	1.66735
0.066395	1.27166
0.066924	1.02824
0.067452	1.04683
0.067982	1.34498
0.068607	1.79142
0.069134	2.13474
0.069668	2.26284
0.070205	2.12024
0.070737	1.76483
0.071266	1.35867
0.071797	1.06536
0.072326	1.01858
0.072854	1.22971
0.073383	1.60123
0.073911	2.00498
0.074439	2.24109
0.074967	2.21450
0.075494	1.94616
0.076025	1.54081
0.076553	1.16284
0.077081	1.00569
0.077609	1.10242
0.078138	1.42313
0.078666	1.83654
0.079194	2.16294
0.079722	2.26768
0.080251	2.09848
0.080779	1.73664
0.081307	1.32564
0.081837	1.05488
0.082367	1.02583
0.082895	1.25716
0.083423	1.64393
0.083953	2.03317
0.084480	2.24753
0.085006	2.20645
0.085535	1.91635
0.086063	1.50858
0.086592	1.15156
0.087122	1.00327
0.087649	1.11128
0.088177	1.45379
0.088705	1.86157
0.089234	2.17825
0.089764	2.25720
0.090292	2.07270
0.090821	1.70280
0.091349	1.30550
0.091878	1.03957
0.092406	1.03474
0.092935	1.28294
0.093462	1.67782
0.093992	2.05654
0.094520	2.25801
0.095048	2.18791
0.095576	1.88654
0.096104	1.47716
0.096632	1.13545
0.097159	1.00085
0.097686	1.13223
0.098215	1.48360
0.098744	1.89057
0.099272	2.19275
0.099801	2.25479
0.100330	2.05171
0.100857	1.67218
0.101386	1.27972
0.101914	1.03066
0.102443	1.04280
0.102971	1.30791
0.103500	1.70119
0.104028	2.07915
0.104557	2.26204
0.105085	2.17341
0.105612	1.86479
0.106141	1.45299
0.106669	1.11934
0.107199	1.00246
0.107727	1.15962
0.108257	1.51341
0.108785	1.92199
0.109314	2.20564
0.109841	2.24351
0.110369	2.02592
0.110901	1.63829
0.111429	1.24910
0.111959	1.02422
0.112488	1.05891
0.113015	1.33531
0.113544	1.74308
0.114072	2.10090
0.114600	2.25559
0.115128	2.15810
0.115657	1.83090
0.116184	1.41829
0.116712	1.09678
0.117240	1.00488
0.117768	1.17654
0.118296	1.54483
0.118824	1.94455
0.119352	2.21370
0.119881	2.23948
0.120409	2.00095
0.120937	1.61493
0.121466	1.22488
0.121993	1.01697
0.122521	1.06536
0.123049	1.36351
0.123576	1.76645
0.124105	2.12104
0.124632	2.26284
0.125161	2.14280
0.125687	1.80753
0.126216	1.39573
0.126746	1.08469
0.127274	1.01052
0.127802	1.19990
0.128330	1.56900
0.128858	1.97114
0.129385	2.22900
0.129914	2.23626
0.130441	1.98000
0.130969	1.58592
0.131499	1.20877
0.132026	1.01455
0.132556	1.07744
0.133084	1.38365
0.133613	1.80028
0.134148	2.14119
0.134681	2.26445
0.135209	2.12024
0.135738	1.70280
0.136440	1.24185
0.136968	1.02019
0.137498	1.05972
0.138026	1.34336
0.138554	1.75194
0.139083	2.10976
0.139611	2.26123
0.140140	2.15327
0.140667	1.82043
0.141196	1.40862
0.141724	1.09355
0.142251	1.00810
0.142780	1.18460
0.143307	1.55772
0.143837	1.96066
0.144365	2.21611
0.144895	2.23787
0.145423	1.99209
0.145951	1.60284
0.146479	1.22005
0.147008	1.01616
0.147536	1.07261
0.148065	1.37317
0.148591	1.77853
0.149121	2.12668
0.149648	2.26526
0.150177	2.13393
0.150705	1.79142
0.151233	1.37640
0.151763	1.07664
0.152291	1.01213
0.152819	1.20715
0.153348	1.58270
0.153877	1.98322
0.154405	2.23142
0.154934	2.21128
0.155462	1.99531
0.155990	1.56900
0.156518	1.19104
0.157046	1.01133
0.157574	1.09114
0.158101	1.39896
0.158630	1.80592
0.159159	2.14683
0.159688	2.26365
0.160216	2.11057
0.160743	1.76403
0.161272	1.35384
0.161801	1.06374
0.162328	1.01777
0.162856	1.23133
0.163385	1.61896
0.163913	2.00739
0.164441	2.23384
0.164970	2.21450
0.165498	1.94536
0.166026	1.54242
0.166555	1.17332
0.167084	1.00569
0.167612	1.10322
0.168141	1.42796
0.168669	1.83573
0.169197	2.16294
0.169726	2.26526
0.170254	2.09848
0.170782	1.72938
0.171311	1.32806
0.171840	1.05327
0.172370	1.02583
0.172898	1.25313
0.173425	1.64715
0.173954	2.03156
0.174483	2.24673
0.175011	2.20564
0.175539	1.91313
0.176067	1.50616
0.176598	1.15237
0.177125	1.00569
0.177654	1.11772
0.178182	1.45621
0.178712	1.86479
0.179239	2.17341
0.179768	2.25962
0.180297	2.07190
0.180824	1.69796
0.181352	1.30389
0.181881	1.04360
0.182411	1.03152
0.182939	1.28536
0.183468	1.68104
0.183996	2.05815
0.184524	2.25398
0.185054	2.19033
0.185582	1.88896
0.186110	1.47393
0.186639	1.13223
0.187168	1.00569
0.187698	1.13867
0.188226	1.49005
0.188756	1.90104
0.189283	2.19517
0.189811	2.25237
0.190340	2.04848
0.190869	1.66654
0.191397	1.27005
0.191927	1.03313
0.192456	1.04441
0.192984	1.31194
0.193514	1.71488
0.194042	2.08559
0.194570	2.26043
0.195099	2.16858
0.195631	1.84862
0.196160	1.44166
0.196689	1.10886
0.197218	1.01535
0.197749	1.17171
0.198283	1.53194
0.198811	1.94052
0.199340	2.21370
0.199867	2.24270
0.200395	2.01142
0.200924	1.61815
0.201452	1.23133
0.201982	1.02099
0.202509	1.06374
0.203038	1.35464
0.203569	1.76242
0.204096	2.11379
0.204625	2.26526
0.205153	2.14683
0.205681	1.81156
0.206211	1.40621
0.206741	1.08630
0.207269	1.00407
0.207798	1.19668
0.208326	1.56981
0.208854	1.96872
0.209384	2.22820
0.209914	2.23464
0.210441	1.98000
0.210969	1.58270
0.211499	1.20796
0.212027	1.01294
0.212555	1.07986
0.213084	1.38445
0.213612	1.79223
0.214140	2.13232
0.214669	2.26445
0.215197	2.12991
0.215725	1.77772
0.216252	1.36995
0.216782	1.07180
0.217311	1.01213
0.217840	1.21682
0.218370	1.60526
0.218896	1.99692
0.219423	2.23867
0.219953	2.21934
0.220483	1.95422
0.221012	1.56256
0.221541	1.18379
0.222068	1.00085
0.222596	1.09194
0.223127	1.41265
0.223656	1.82687
0.224185	2.15005
0.224713	2.26204
0.225240	2.10171
0.225768	1.74791
0.226297	1.33853
0.226826	1.05810
0.227354	1.02422
0.227881	1.25796
0.228410	1.63507
0.228939	2.02270
0.229467	2.24673
0.229996	2.20564
0.230524	1.92521
0.231053	1.51744
0.231580	1.15962
0.232108	1.00649
0.232636	1.11370
0.233164	1.43843
0.233691	1.85588
0.234219	2.17180
0.234748	2.26043
0.235276	2.08398
0.235805	1.71810
0.236332	1.31517
0.236860	1.04763
0.237391	1.03635
0.237919	1.27488
0.238447	1.66251
0.238977	2.04526
0.239505	2.25237
0.240034	2.19436
0.240562	1.88896
0.241091	1.49085
0.241619	1.13464
0.242148	1.00407
0.242676	1.13223
0.243204	1.47232
0.243733	1.88412
0.244261	2.18630
0.244789	2.25720
0.245318	2.06384
0.245846	1.68185
0.246374	1.28777
0.246902	1.03313
0.247431	1.03877
0.247959	1.29744
0.248487	1.69232
0.249014	2.07190
0.249543	2.25640
0.250072	2.18147
0.250601	1.86882
0.251130	1.46104
0.251657	1.12498
0.252185	1.00569
0.252715	1.15156
0.253245	1.50536
0.253773	1.91232
0.254302	2.20081
0.254830	2.24915
0.255358	2.03640
0.255885	1.65204
0.256413	1.26119
0.256942	1.03066
0.257472	1.04763
0.258001	1.32645
0.258529	1.73019
0.259058	2.09284
0.259586	2.25801
0.260114	2.16455
0.260643	1.84137
0.261171	1.42796
0.261703	1.10161
0.262236	1.00730
0.262768	1.17654
0.263297	1.54806
0.263825	1.94777
0.264355	2.21934
0.264883	2.23867
0.265411	2.00336
0.265938	1.61251
0.266466	1.22649
0.266993	1.01616
0.267520	1.06374
0.268051	1.36028
0.268579	1.76967
0.269107	2.12104
0.269636	2.26365
0.270165	2.14119
0.270692	1.80834
