Tiempo(s)	Voltaje(V)
0.000062	2.18147
0.000649	2.25559
0.001190	2.04607
0.001721	1.66735
0.002249	1.25555
0.002814	1.01616
0.003345	1.05730
0.003873	1.33853
0.004403	1.75355
0.004950	2.11540
0.005483	2.26284
0.006012	2.14441
0.006539	1.80753
0.007067	1.39896
0.007596	1.08308
0.008125	1.00971
0.008652	1.20554
0.009203	1.58592
0.009731	1.98081
0.010260	2.23867
0.010789	2.22417
0.011317	1.96872
0.011845	1.56659
0.012375	1.19507
0.012902	1.00891
0.013430	1.09275
0.013960	1.39815
0.014488	1.80915
0.015016	2.14360
0.015544	2.26687
0.016071	2.11621
0.016600	1.76403
0.017130	1.34014
0.017687	1.05085
0.018224	1.02583
0.018754	1.25635
0.019283	1.65043
0.019813	2.03640
0.020342	2.25076
0.020871	2.20322
0.021399	1.91393
0.021927	1.50536
0.022455	1.14995
0.022984	1.00246
0.023511	1.11934
0.024040	1.46024
0.024568	1.87446
0.025096	2.17986
0.025624	2.25720
0.026153	2.06867
0.026684	1.69555
0.027212	1.30630
0.027740	1.04038
0.028268	1.03635
0.028797	1.28616
0.029327	1.68346
0.029855	2.05815
0.030381	2.25317
0.030912	2.18953
0.031440	1.88010
0.031969	1.47152
0.032497	1.13142
0.033025	1.00166
0.033553	1.13626
0.034081	1.51261
0.034670	1.94697
0.035199	2.21772
0.035727	2.24109
0.036255	2.00820
0.036783	1.61896
0.037311	1.22971
0.037839	1.02099
0.038368	1.06455
0.038896	1.35867
0.039425	1.76161
0.039954	2.11379
0.040482	2.26607
0.041010	2.14763
0.041537	1.81156
0.042064	1.40057
0.042591	1.08308
0.043120	1.00891
0.043647	1.19426
0.044177	1.56578
0.044707	1.96469
0.045236	2.22659
0.045766	2.22820
0.046294	1.98081
0.046822	1.58512
0.047351	1.20796
0.047881	1.01455
0.048410	1.07905
0.048938	1.38848
0.049466	1.80028
0.049994	2.13393
0.050522	2.26445
0.051051	2.12588
0.051579	1.77611
0.052110	1.36673
0.052638	1.07180
0.053167	1.01616
0.053696	1.22005
0.054224	1.60204
0.054751	2.00659
0.055280	2.23464
0.055809	2.21531
0.056336	1.95341
0.056864	1.55531
0.057393	1.18379
0.057924	1.00810
0.058454	1.09436
0.058983	1.41668
0.059511	1.82284
0.060040	2.16133
0.060569	2.26284
0.061097	2.10332
0.061625	1.74147
0.062153	1.33853
0.062680	1.05730
0.063208	1.02180
0.063738	1.24829
0.064268	1.63588
0.064796	2.02351
0.065324	2.24512
0.065853	2.20725
0.066382	1.92360
0.066910	1.52228
0.067440	1.15479
0.067969	1.00488
0.068594	1.16204
0.069120	1.51664
0.069649	1.92924
0.070179	2.20886
0.070709	2.24673
0.071237	2.02028
0.071766	1.63749
0.072294	1.24507
0.072822	1.02180
0.073349	1.06052
0.073878	1.33853
0.074407	1.73825
0.074935	2.09043
0.075463	2.25962
0.075991	2.15810
0.076519	1.82284
0.077047	1.41507
0.077575	1.09517
0.078105	1.00730
0.078632	1.17573
0.079161	1.55531
0.079689	1.95502
0.080219	2.22256
0.080747	2.23706
0.081275	2.00417
0.081807	1.59237
0.082342	1.20877
0.082872	1.01535
0.083401	1.07422
0.083929	1.37881
0.084458	1.78900
0.084988	2.12991
0.085517	2.26123
0.086047	2.12991
0.086576	1.78336
0.087104	1.37237
0.087633	1.07502
0.088161	1.01697
0.088690	1.21682
0.089219	1.60043
0.089748	1.99370
0.090277	2.23948
0.090807	2.22175
0.091334	1.96228
0.091864	1.55531
0.092393	1.18218
0.092921	1.01294
0.093447	1.09678
0.093975	1.41346
0.094504	1.81962
0.095032	2.15247
0.095560	2.26526
0.096090	2.10493
0.096617	1.74872
0.097146	1.34095
0.097673	1.05891
0.098202	1.02019
0.098731	1.24507
0.099260	1.63185
0.099789	2.02190
0.100317	2.24351
0.100846	2.21209
0.101375	1.92602
0.101904	1.52308
0.102431	1.16284
0.102960	0.99924
0.103488	1.11047
0.104016	1.43763
0.104544	1.84460
0.105073	2.17261
0.105601	2.25881
0.106131	2.08237
0.106660	1.70844
0.107188	1.31436
0.107715	1.04441
0.108244	1.02986
0.108774	1.26360
0.109303	1.66332
0.109830	2.05654
0.110358	2.25237
0.110891	2.19678
0.111419	1.89379
0.111947	1.48924
0.112476	1.14190
0.113006	1.00005
0.113534	1.13464
0.114062	1.47716
0.114590	1.88493
0.115118	2.19114
0.115646	2.25962
0.116174	2.06867
0.116702	1.67299
0.117230	1.28777
0.117758	1.03957
0.118287	1.03877
0.118815	1.30066
0.119342	1.69957
0.119872	2.07190
0.120402	2.25720
0.120929	2.17986
0.121457	1.86882
0.121984	1.46185
0.122513	1.12336
0.123041	1.00488
0.123570	1.14834
0.124098	1.50294
0.124625	1.91071
0.125155	2.20322
0.125683	2.24915
0.126210	2.03881
0.126738	1.65365
0.127268	1.26038
0.127798	1.02422
0.128326	1.05247
0.128855	1.32483
0.129384	1.72133
0.129912	2.09204
0.130439	2.26204
0.130969	2.16616
0.131498	1.82929
0.132025	1.42877
0.132553	1.10645
0.133081	1.00971
0.133610	1.16848
0.134138	1.53114
0.134665	1.93569
0.135194	2.21047
0.135723	2.22256
0.136426	1.89218
0.136955	1.48441
0.137484	1.13626
0.138012	1.00649
0.138539	1.13626
0.139067	1.47877
0.139595	1.88574
0.140122	2.19114
0.140650	2.25398
0.141178	2.05573
0.141706	1.67782
0.142235	1.27891
0.142767	1.03232
0.143295	1.03796
0.143823	1.30550
0.144352	1.70199
0.144879	2.07512
0.145408	2.26365
0.145944	2.16938
0.146485	1.84862
0.147014	1.42715
0.147545	1.10564
0.148073	1.00488
0.148601	1.16607
0.149130	1.52711
0.149657	1.93569
0.150187	2.21289
0.150715	2.24512
0.151243	2.01142
0.151773	1.62701
0.152301	1.24185
0.152829	1.02099
0.153357	1.05972
0.153886	1.34578
0.154413	1.75194
0.154943	2.10815
0.155471	2.26365
0.155999	2.15085
0.156527	1.82526
0.157056	1.41104
0.157586	1.09355
0.158114	1.00891
0.158642	1.19265
0.159169	1.56498
0.159697	1.95744
0.160225	2.22095
0.160753	2.23062
0.161282	1.99047
0.161811	1.59720
0.162341	1.21521
0.162871	1.01374
0.163398	1.07502
0.163926	1.37640
0.164454	1.78578
0.164983	2.12910
0.165511	2.26365
0.166039	2.13474
0.166568	1.79384
0.167097	1.37398
0.167626	1.07664
0.168155	1.01213
0.168684	1.21441
0.169213	1.59317
0.169742	1.98886
0.170270	2.23545
0.170798	2.22417
0.171325	1.96228
0.171854	1.56175
0.172382	1.19024
0.172910	1.00891
0.173439	1.08711
0.173967	1.40540
0.174496	1.81479
0.175023	2.15327
0.175553	2.26204
0.176080	2.11218
0.176609	1.75758
0.177137	1.34900
0.177665	1.06133
0.178193	1.02019
0.178721	1.23863
0.179249	1.62379
0.179778	2.01303
0.180309	2.24431
0.180837	2.21450
0.181365	1.93488
0.181894	1.53033
0.182422	1.16848
0.182952	1.02099
0.183480	1.11047
0.184006	1.43682
0.184535	1.84218
0.185064	2.16777
0.185591	2.26204
0.186120	2.08559
0.186651	1.72052
0.187181	1.31839
0.187709	1.04924
0.188237	1.03066
0.188765	1.26683
0.189294	1.65929
0.189822	2.03801
0.190350	2.25076
0.190880	2.19919
0.191408	1.90104
0.191936	1.50133
0.192463	1.14834
0.192993	1.00327
0.193524	1.12095
0.194051	1.46910
0.194580	1.87768
0.195109	2.18550
0.195637	2.25962
0.196164	2.06787
0.196692	1.70280
0.197219	1.29100
0.197751	1.03796
0.198281	1.03635
0.198809	1.29341
0.199337	1.69474
0.199867	2.07190
0.200395	2.25881
0.200924	2.18308
0.201452	1.87446
0.201979	1.46427
0.202510	1.12578
0.203039	1.00569
0.203566	1.14753
0.204095	1.50052
0.204623	1.90829
0.205151	2.19919
0.205681	2.25076
0.206210	2.03640
0.206737	1.65607
0.207267	1.26360
0.207796	1.02663
0.208324	1.05891
0.208852	1.32806
0.209381	1.72858
0.209910	2.09768
0.210444	2.25962
0.210973	2.16374
0.211501	1.84137
0.212030	1.42554
0.212559	1.10242
0.213088	1.00407
0.213616	1.17573
0.214144	1.53678
0.214672	1.94374
0.215201	2.21531
0.215729	2.24270
0.216258	2.00820
0.216785	1.62379
0.217313	1.22810
0.217841	1.01938
0.218369	1.06616
0.218898	1.34820
0.219428	1.76403
0.219956	2.11379
0.220484	2.26445
0.221012	2.14280
0.221542	1.80995
0.222070	1.39815
0.222599	1.08308
0.223129	1.00730
0.223657	1.19749
0.224185	1.56981
0.224715	1.96872
0.225242	2.22578
0.225770	2.23062
0.226298	1.98403
0.226826	1.58592
0.227355	1.20393
0.227884	1.01535
0.228413	1.07905
0.228942	1.38848
0.229471	1.79626
0.229999	2.13796
0.230529	2.26526
0.231056	2.12346
0.231585	1.77692
0.232113	1.36190
0.232641	1.07583
0.233168	1.01374
0.233697	1.21199
0.234226	1.60848
0.234754	1.99934
0.235284	2.23706
0.235812	2.22175
0.236341	1.95341
0.236869	1.54886
0.237397	1.18057
0.237926	1.00569
0.238454	1.09678
0.238984	1.41668
0.239512	1.82929
0.240041	2.16133
0.240569	2.26123
0.241098	2.10412
0.241627	1.74308
0.242154	1.33611
0.242683	1.05649
0.243210	1.02260
0.243739	1.25071
0.244267	1.64474
0.244796	2.02673
0.245325	2.24351
0.245852	2.20645
0.246382	1.92602
0.246910	1.51905
0.247438	1.16123
0.247967	1.00730
0.248495	1.11531
0.249025	1.44896
0.249553	1.86076
0.250081	2.17341
0.250610	2.26123
0.251138	2.07754
0.251667	1.71327
0.252196	1.30711
0.252724	1.04683
0.253252	1.03232
0.253781	1.27649
0.254309	1.66815
0.254836	2.04768
0.255365	2.25156
0.255892	2.19355
0.256422	1.89540
0.256950	1.48602
0.257478	1.14109
0.258006	1.00891
0.258534	1.13223
0.259062	1.48119
0.259590	1.88251
0.260117	2.18630
0.260646	2.25237
0.261175	2.05815
0.261701	1.68427
0.262229	1.28858
0.262758	1.03474
0.263285	1.04360
0.263813	1.29905
0.264344	1.69796
0.264872	2.06787
0.265400	2.25720
0.265927	2.18066
0.266455	1.87446
0.266981	1.46427
0.267510	1.12578
0.268038	1.00246
0.268566	1.14915
0.269093	1.49891
0.269622	1.90507
0.270151	2.19758
0.270680	2.25156
